\DATE= 'Mon Sep 10 18:11:54 2018'
\APERNAME= 'SH'
\BUNIT= 'MJy/sr'
\CAL_SET= 'irs_2010_12_22-pb-pfc-trim-omega-lhllbiasfork-slft.cal'
\SOFTWARE= 'CUBISM'
\SOFT_VER= 'v1.8 (June-2011)'
\
\           KEYWORDS FROM FIRST BCD
\
\SIMPLE  =                    T / Fits standard                                  
\BITPIX  =                  -32 / FOUR-BYTE SINGLE PRECISION FLOATING POINT      
\NAXIS   =                    2 / STANDARD FITS FORMAT                           
\NAXIS1  =                  128 /                                                
\NAXIS2  =                  128 /                                                
\ORIGIN  = 'Spitzer Science Center' / Organization generating this FITS file     
\CREATOR = 'S18.18.0'           / SW version used to create this FITS file       
\TELESCOP= 'Spitzer '                                                            
\INSTRUME= 'IRSX    '                                                            
\CAL_SET = 'C18.18PRE25.A'      / ID for the set of CAL files used               
\CHNLNUM =                    1 / 0=SL, 1=SH, 2=LL, 3=LH                         
\FILENAME= 'IRSX.1.0006013184.0002.0000.01.mipl.fits' / File name                
\FILETYPE= 'fits-irs2d-flux'                                                     
\EXPTYPE = 'sp      '           / Exposure Type                                  
\REQTYPE = 'AOR     '           / Request type (AOR,IER, or SER)                 
\AOT_TYPE= 'IrsStare'           / Observation Template Type                      
\AORLABEL= 'IRSWNSTAR-003'      / AOR Label                                      
\FOVID   =                   50 / Field of View ID                               
\FOVNAME = 'IRS_Short-Hi_1st_Position' / Field of View Name                      
\READMODE= 'RAW     '           / Readout Mode                                   
\                                                                                
\          / PROPOSAL INFORMATION                                                
\                                                                                
\OBSRVR  = 'James R. Houck'     / Observer Name                                  
\OBSRVRID=                    4 / Observer ID of Principal Investigator          
\PROCYCL =                    1 / Proposal Cycle                                 
\PROGID  =                  199 / Program ID                                     
\PROTITLE= 'Dust Properties Along the Wolf-Rayet Evolutionary Sequence' / Program
\PROGCAT =                   29 / Program Category                               
\                                                                                
\          / TIME AND EXPOSURE INFORMATION                                       
\                                                                                
\DATE_OBS= '2004-04-19T00:15:04.939' / Date & time (UTC) at DCE start            
\MJD_OBS =        53114.0104738 / [days] MJD in UTC at DCE start (JD-2400000.5)  
\UTCS_OBS=        135605704.939 / [sec] DCE start time from noon Jan 1, 2000 UTC 
\SCLK_OBS=        766800981.717 / [sec] SCLK time (since 1/1/1980) at DCE start  
\SAMPTIME=               4.0632 / [sec] Sample integration time                  
\REQMODE =                    5 / ID for mode or type of request                 
\EXPSTRTC=            766800953 / Exposure Start Timestamp Coarse                
\EXPSTRTF=                16652 / Exposure Start Timestamp Fine                  
\GRPARVTC=            766801042 / [sec] Coarse Spacecraft Group Time             
\GRPARVTF=                    0 / [sec] Fine Spacecraft Group Time               
\AIRSCMDN=                    2 / Commanded number of DCEs for IRS               
\AIRS_DET=                    1 / Selected IRS detector for exposure command     
\AIRSEXPM=                    1 / Current Mode of the IRS Exp Manager            
\GRPTIME =               8.1264 / [sec] Group (w/ spin) integration time         
\DEADTIME=              24.3792 / [sec] Reset + boost(s) time                    
\RAMPTIME=                121.9 / [sec] Ramp (total DCE) integration time        
\EXPTOT_T=               243.79 / [sec] Integr. time for all DCEs in exposure    
\AIRSERCT=                    0 / Number of IRS exposure errors                  
\                                                                                
\          / TARGET AND POINTING INFORMATION                                     
\                                                                                
\OBJECT  = 'WR124   '           / Target Name                                    
\OBJTYPE = 'TargetFixedSingle'  / Target Type                                    
\RA_HMS  = '19h11m31.0s'        / [hh:mm:ss.s] RA_SLT or CRVAL1 in sexagesimal   
\DEC_DMS = '+16d51m35s'         / [dd:mm:ss] DEC_SLT or CRVAL2 in sexagesimal    
\RA_RQST =     287.878666666667 / [deg] Commanded RA referenced to commanded FOV 
\DEC_RQST=     16.8605991666667 / [deg] Commanded Dec referenced to commanded FOV
\PA_RQST =     78.4962021488712 / [deg] Requested pos. angle of axis 2 (E of N)  
\PM_RA   =                   0. / [arcsec/yr] Proper Motion in RA (J2000)        
\PM_DEC  =                -0.01 / [arcsec/yr] Proper Motion in Dec (J2000)       
\CRDER1  =  0.00030198493288798 / [deg] Uncertainty in RA of SI boresight        
\CRDER2  = 0.000302190536533444 / [deg] Uncertainty in DEC of SI boresight       
\SIGRA   =   0.0304557526136459 / [arcsec] RMS dispersion of RA over DCE         
\SIGDEC  =   0.0122750832195615 / [arcsec] RMS dispersion of DEC over DCE        
\SIGPA   =    0.212220957196142 / [arcsec] RMS dispersion of PA over DCE         
\PTGDIFF =     1.91019791917587 / [arcsec] offset btwn actual and rqsted pntng   
\PTGDIFFX=    -1.40211450126758 / [arcsec] requested - actual pntg along axis 1  
\PTGDIFFY=    -1.29727943991874 / [arcsec] requested - actual pntg along axis 2  
\RA_REF  =     287.878666666667 / [deg] Commanded RA (J2000) of ref. position    
\DEC_REF =     16.8605991666667 / [deg] Commanded Dec (J2000) of ref. position   
\USEDBPHF=                    T / T if Boresight Pointing History File was used. 
\RMS_JIT =   0.0218302110368237 / [arcsec] RMS jitter during DCE                 
\RMS_JITY=   0.0124448200876124 / [arcsec] RMS jitter during DCE along Y         
\RMS_JITZ=   0.0179355670916539 / [arcsec] RMS jitter during DCE along Z         
\RA_FOV  =     287.878831116217 / [deg] RA at FOVID averaged over DCE            
\DEC_FOV =     16.8600924329034 / [deg] DEC at FOVID averaged over DCE           
\PA_FOV  =      119.97035621104 / [deg] PA at FOVID averaged over DCE            
\RA_SLT  =     287.879293116203 / [deg] RA at slit center averaged over DCE      
\DEC_SLT =      16.859837432911 / [deg] DEC at slit center averaged over DCE     
\PA_SLT  =     119.970491089085 / [deg] PA at slit center averaged over DCE      
\CSDRADEC= 6.49410047410964E-06 / [deg] Costandard deviation in RA and Dec       
\CSD_JTYZ=   0.0107322314625467 / [arcsec] Costandard deviation of jitter in YZ  
\BPHFNAME= 'BPHF.0766800000.03.pntg' / Boresight Pointing History Filename       
\FOVVERSN= 'BodyFrames_FTU_13Aa.xls' / FOV/BodyFrames file version used          
\VHELCORR=                 23.1 / [km/sec] Correction to heliocentric velocity   
\VLSRCORR=                 41.8 / [km/sec] Correction to local standard of rest  
\SPTZR_X =    -136198824.485002 / [km] Heliocentric x position                   
\SPTZR_Y =     -56370051.038805 / [km] Heliocentric y position                   
\SPTZR_Z =     -27431685.173372 / [km] Heliocentric z position                   
\SPTZR_VX=            12.181618 / [km/sec] Heliocentric x velocity               
\SPTZR_VY=           -24.914204 / [km/sec] Heliocentric y velocity               
\SPTZR_VZ=           -11.053081 / [km/sec] Heliocentric z velocity               
\ET_OBS  =        135605769.124 / [sec] DCE start time (TDB seconds past J2000)  
\HMJD_OBS=        53114.0106039 / Corresponding Heliocen. Mod. Julian Date       
\                                                                                
\                                                                                
\          / PHOTOMETRY (IRS IMAGING)                                            
\                                                                                
\BUNIT   = 'e-/sec  '           / Units of image data                            
\                                                                                
\          / SPECTROPHOTOMETRY IRS SH, LH (CHNLNUM 1, 3)                         
\                                                                                
\FLXCON11=           105.259789 / [electrons/sec/Jy] Flux conversion Order 11    
\FLXERR11=                124.5 / Flux conversion uncertainties Order 11         
\FLXCON12=           116.286804 / [electrons/sec/Jy] Flux conversion Order 12    
\FLXERR12=                124.5 / Flux conversion uncertainties Order 12         
\FLXCON13=           126.412613 / [electrons/sec/Jy] Flux conversion Order 13    
\FLXERR13=                124.5 / Flux conversion uncertainties Order 13         
\FLXCON14=            136.83342 / [electrons/sec/Jy] Flux conversion Order 14    
\FLXERR14=                124.5 / Flux conversion uncertainties Order 14         
\FLXCON15=           148.767761 / [electrons/sec/Jy] Flux conversion Order 15    
\FLXERR15=                124.5 / Flux conversion uncertainties Order 15         
\FLXCON16=           161.639481 / [electrons/sec/Jy] Flux conversion Order 16    
\FLXERR16=                124.5 / Flux conversion uncertainties Order 16         
\FLXCON17=           175.408447 / [electrons/sec/Jy] Flux conversion Order 17    
\FLXERR17=                124.5 / Flux conversion uncertainties Order 17         
\FLXCON18=           182.315125 / [electrons/sec/Jy] Flux conversion Order 18    
\FLXERR18=                124.5 / Flux conversion uncertainties Order 18         
\FLXCON19=           212.186325 / [electrons/sec/Jy] Flux conversion Order 19    
\FLXERR19=                124.5 / Flux conversion uncertainties Order 19         
\FLXCON20=           246.369156 / [electrons/sec/Jy] Flux conversion Order 20    
\FLXERR20=                124.5 / Flux conversion uncertainties Order 20         
\                                                                                
\          / GENERAL MAPPING KEYWORDS                                            
\                                                                                
\DBEXPOID=              1296447 / Current Exposure ID                            
\                                                                                
\          / IRS PEAKUP KEYWORDS                                                 
\                                                                                
\PKUPMODE= 'IRS     '           / Peakup mode (none, IRS, or PCRS)               
\PKUPACCU= 'Moderate'           / Peakup Accuracy (high, moderate,low)           
\PKUPFILT= 'BLUE    '           / Peakup filter (blue or red)                    
\PKUPFLUX=                 59.4 / Flux density of peakup target for IRS [mJy] or 
\PKUPXTND=                    F / Extended source (T/F)                          
\ISPUPOS =                    T / PU target given in absolute positions (T) or re
\PKUPRA  =       288.1146666667 / [deg] RA peakup position                       
\PKUPDEC =       16.85027777778 / [deg] Dec peakup position                      
\PM_PKRA =                0.009 / [''/yr]Proper motion for RA peakup position    
\PM_PKDEC=                0.008 / [''/yr]Proper motion for Dec peakup position   
\HP_CENQ =                    0 / Peakup centroid quality code                   
\APKUPCEN=                    1 / Status of the peakup centroid                  
\AXCNTRD1=                10778 / [centipixels] X value of the brightest centroid
\AYCNTRD1=                 2799 / [centipixels] Y value of the brightest centroid
\AXCNTRD2=                    0 / [centipixels] X value of the second brightest c
\AYCNTRD2=                    0 / [centipixels] Y value of the second brightest c
\AINTENS1=               269243 / [counts] Intensity value of the brightest centr
\AINTENS2=                    0 / [counts] Intensity value of the second brightes
\APKUPXCE=                10778 / [centipixels] X value of the centroid to be ret
\APKUPYCE=                 2799 / [centipixels] Y value of the centroid to be ret
\                                                                                
\                                                                                
\          / DATA FLOW KEYWORDS                                                  
\                                                                                
\DATE    = '2010-09-25T05:07:19' / [YYYY-MM-DDThh:mm:ss UTC] file creation date  
\AORKEY  = '6013184 '           / AOR or EIR key. Astrnmy Obs Req/Instr Eng Req  
\EXPID   =                    2 / Exposure ID (0-9999)                           
\DCENUM  =                    0 / DCE number (0-9999)                            
\TLMGRPS =                   16 / Number of expected telemetry groups            
\FILE_VER=                    1 / Version of the raw file made by SIS            
\RAWNAME = 'IRSX.1.0006013184.0002.0000.01.mipl.fits' / Raw data file name       
\SIS_SVER= 'J5.2.3  '           / SIS SW VERsion                                 
\CPT_VER = '3.0.95  '           / Channel Param Table FOS version                
\CTD_VER = '3.0.94S '           / Cmded telemetry data version                   
\EXPDFLAG=                    F / (T/F) expedited DCE                            
\MISS_LCT=                    0 / Total Missed Line Cnt in this FITS             
\MANCPKT =                    F / T if this FITS is Missing Ancillary Data       
\MISSDATA=                    F / T if this FITS is Missing Image Data           
\PAONUM  =                  477 / PAO Number                                     
\CAMPAIGN= 'IRSX003000'         / Campaign                                       
\DCEID   =             13581731 / Data-Collection-Event ID                       
\DCEINSID=              2097719 / DCE Instance ID                                
\DPID    =            326989864 / Data Product Instance ID                       
\PIPENUM =                  201 / Pipeline Script Number                         
\SOS_VER =                   1. / Data-Product Version                           
\PLVID   =                    9 / Pipeline Version ID                            
\CALID   =                    3 / CalTrans Version ID                            
\ORIGIN0 = 'JPL_FOS '           / site where RAW FITS files was written          
\CREATOR0= 'J5.2.3  '           / SW system that created RAW FITS                
\                                                                                
\XTCHINSQ=                    0 / Number of rows with poor SH/LH optical crosstal
\XTKUNCOR=                    0 / Number of rows with no SH/LH optical crosstalk 
\GAIN1   =                  4.6 / e/DN conversion (readout channel 1)            
\GAIN2   =                  4.6 / e/DN conversion (readout channel 2)            
\GAIN3   =                  4.6 / e/DN conversion (readout channel 3)            
\GAIN4   =                  4.6 / e/DN conversion (readout channel 4)            
\BASECH1 =             34953.63 / Trimmed mean channel 1 signal in reference unil
\BASECH2 =             32857.52 / Trimmed mean channel 2 signal in reference unil
\BASECH3 =             29940.71 / Trimmed mean channel 3 signal in reference unil
\BASECH4 =             35223.56 / Trimmed mean channel 4 signal in reference unil
\                                                                                
\HISTORY *0 (imported)                                                           
\HISTORY job.c ver: 1.50                                                         
\HISTORY TRANHEAD                  v.         13.1, ran Fri Sep 24 22:06:36 2010 
\HISTORY CALTRANS                 v.        4.0, ran Fri Sep 24 22:06:41 2010    
\HISTORY cvti2r4           v.  1.31 A61025, generated  9/24/10 at 22:06:45       
\HISTORY DNTOFLUX                  v.          4.2, ran Fri Sep 24 22:06:50 2010 
\HISTORY imagest           v.  1.80 A61012, generated  9/24/10 at 22:06:56       
\HISTORY  input: cvte.fits                                                       
\HISTORY  unc.: cvte_unc.fits                                                    
\HISTORY DROOPOP                   v.     3.700000, ran Fri Sep 24 22:06:58 2010 
\HISTORY DARKBASE                  v.     2.200000, ran Fri Sep 24 22:07:04 2010 
\HISTORY CUBESUB                   v.     3.200000, ran Fri Sep 24 22:07:06 2010 
\HISTORY lineariz          v.  1.39 A40318, generated  9/24/10 at 22:07:08       
\HISTORY  input: cubesub.fits                                                    
\HISTORY  model: ./cal/lincal.fits                                               
\HISTORY DARKDRIFT                 v.          4.1, ran Fri Sep 24 22:07:19 2010 
\HISTORY DROOPRES                  v.     2.200000, ran Fri Sep 24 22:07:23 2010 
\HISTORY CROSSTALK                   v     1.2, ran Fri Sep 24 22:07:29 2010     
\HISTORY FLATAP                    v. 1.500   Fri Sep 24 22:07:31 2010           
\HISTORY CALTRANS                 v.        4.0, ran Fri Sep 24 22:18:28 2010    
\HISTORY PTNTRAN                   v.          1.4, ran Fri Sep 24 22:18:32 2010 
\HISTORY PTNTRAN                   v.          1.4, ran Fri Sep 24 22:18:33 2010 
\HISTORY FPGen                     v.         1.26, ran Fri Sep 24 22:18:35 2010 
\FBIDDARK=                  551                                                  
\FBIDFLAT=                 1085                                                  
\FBIDLNCR=                   23                                                  
\FBIDLNMD=                  237                                                  
\FBIDOMSK=                   48                                                  
\FBIDPMSK=                  108                                                  
\FBIDWSMP=                 1066                                                  
\FBIDUMSK=                   67                                                  
\FBIDWSOF=                 1067                                                  
\FBIDWSOM=                 1068                                                  
\FBIDWSWA=                 1065                                                  
\FBIDFLXC=                 1202                                                  
\FBIDFMSK=                   72                                                  
\FBIDCALS=                 1212                                                  
\FBIDLNSC=                  506                                                  
\HISTORY CALTRANS                 v.        4.0, ran Fri Sep 24 22:32:31 2010    
\END                                                                             
\FILENAME= 'wr124_SH_complete.tbl'
\ COMMENT This file contains a spectral extraction created from
\ COMMENT an IRS spectral mapping dataset.
\ Extraction Area:
\ # Poly: 19:11:30.463,+16:51:41.67 ; 19:11:30.306,+16:51:37.76
\ #       19:11:31.397,+16:51:28.72 ; 19:11:31.554,+16:51:32.64
|   WAVELENGTH    |      FLUX       | FLUX_UNCERTAINTY |
|      real       |      real       |       real       |
|       um        |     MJy/sr      |      MJy/sr      |
         9.972525          80.23915          0.7269935
         9.980617          89.29425          0.9126387
         9.988707          94.89589          0.8067813
         9.996796          91.40015          0.8982221
         10.00488          87.18427          0.7170032
